* Sea-Bird SBE25 Data File:
* FileName = C:\Documents and Settings\maribel\Escritorio\PUDEM\CTD\Pudem\Data\Cast SBE-25 Pudem 171\PU171000.hex
* Software Version 1.59
* Temperature SN = 031485
* Conductivity SN = 041189
* System UpLoad Time = Mar 18 2019 10:37:17
** ITXASBIDE
** PUDEM 171
** NINA
** 1.5
** 41 20.121
** 02 16.168
** 80
** 9:29
* ds
* SBE 25 CTD  V 3.0i SN 0104   03/18/19  10:22:38.756
* external pressure sensor, range = 1000 psia,  tcval = 41
* xtal = 9437450   clk = 32768.377   vmain = 13.1   iop = 154   vlith = 5.8
* ncasts = 5   samples = 23953   free = 71012   lwait = 0 msec
*
* CTD configuration:
* number of scans averaged = 1,  data stored at 8 scans per second
* minimum conductivity frequency for pump turn on = 3500
* battery type = ALKALINE
*
* 2 external voltages sampled
* stored voltage # 0 = external voltage 4
* stored voltage # 1 = external voltage 5
*

* S>
* dh
* cast 0  03/15 08:26:35  smpls 0 to 13659  nv = 2  avg = 1  stp = switch of

* S>
# nquan = 9
# nvalues = 13660                                 
# units = specified
# name 0 = scan: Scan Count
# name 1 = timeS: Time, Elapsed [seconds]
# name 2 = prSM: Pressure, Strain Gauge [db]
# name 3 = t090C: Temperature [ITS-90, deg C]
# name 4 = sal00: Salinity, Practical [PSU]
# name 5 = seaTurbMtr: OBS, Seapoint Turbidity [FTU]
# name 6 = wetStar: Fluorescence, Wetlab Wetstar [mg/m^3]
# name 7 = c0mS/cm: Conductivity [mS/cm]
# name 8 = flag:  0.000e+00
# span 0 =          1,      13660                 
# span 1 =      0.000,   1707.375                 
# span 2 =     -0.084,     79.507                 
# span 3 =    13.2769,    15.2674                 
# span 4 =     0.0000,    39.6283                 
# span 5 =      0.000,     24.042                 
# span 6 =    -0.4620,    29.1424                 
# span 7 =  -0.000434,  46.592883                 
# span 8 = 0.0000e+00, 0.0000e+00                 
# interval = seconds: 0.125
# start_time = Mar 15 2019 08:26:35
# bad_flag = -9.990e-29
# <?xml version="1.0" encoding="UTF-8"?>
# <Sensors count="5" >
#   <sensor Channel="1" >
#     <!-- Frequency 0, Temperature -->
#     <TemperatureSensor SensorID="55" >
#       <SerialNumber>031485</SerialNumber>
#       <CalibrationDate>20-Apr-17</CalibrationDate>
#       <UseG_J>1</UseG_J>
#       <A>0.00000000e+000</A>
#       <B>0.00000000e+000</B>
#       <C>0.00000000e+000</C>
#       <D>0.00000000e+000</D>
#       <F0_Old>0.000</F0_Old>
#       <G>4.84749407e-003</G>
#       <H>6.83288354e-004</H>
#       <I>2.73484809e-005</I>
#       <J>2.17749115e-006</J>
#       <F0>1000.000</F0>
#       <Slope>1.00000000</Slope>
#       <Offset>0.0000</Offset>
#     </TemperatureSensor>
#   </sensor>
#   <sensor Channel="2" >
#     <!-- Frequency 1, Conductivity -->
#     <ConductivitySensor SensorID="3" >
#       <SerialNumber>041189</SerialNumber>
#       <CalibrationDate>29-Mar-17</CalibrationDate>
#       <UseG_J>1</UseG_J>
#       <!-- Cell const and series R are applicable only for wide range sensors. -->
#       <SeriesR>0.0000</SeriesR>
#       <CellConst>2000.0000</CellConst>
#       <Coefficients equation="0" >
#         <A>0.00000000e+000</A>
#         <B>0.00000000e+000</B>
#         <C>0.00000000e+000</C>
#         <D>0.00000000e+000</D>
#         <M>0.0</M>
#         <CPcor>-9.57000000e-008</CPcor>
#       </Coefficients>
#       <Coefficients equation="1" >
#         <G>-4.02772702e+000</G>
#         <H>5.40738082e-001</H>
#         <I>-6.97231444e-005</I>
#         <J>3.29150361e-005</J>
#         <CPcor>-9.57000000e-008</CPcor>
#         <CTcor>3.2500e-006</CTcor>
#       </Coefficients>
#       <Slope>1.00000000</Slope>
#       <Offset>0.00000</Offset>
#     </ConductivitySensor>
#   </sensor>
#   <sensor Channel="3" >
#     <!-- Pressure voltage, Pressure, Strain Gauge -->
#     <PressureSensor SensorID="49" >
#       <SerialNumber>0199</SerialNumber>
#       <CalibrationDate>30-Mar-17</CalibrationDate>
#       <A0>5.332372e+002</A0>
#       <A1>-1.403377e-001</A1>
#       <A2>1.650676e-007</A2>
#       <Offset>0.00000</Offset>
#     </PressureSensor>
#   </sensor>
#   <sensor Channel="4" >
#     <!-- A/D voltage 0, OBS, Seapoint Turbidity -->
#     <OBS_SeapointTurbiditySensor SensorID="33" >
#       <SerialNumber>102666</SerialNumber>
#       <CalibrationDate>27-10-2007</CalibrationDate>
#       <!-- The following is an array index, not the actual gain setting. -->
#       <GainSetting>3</GainSetting>
#       <ScaleFactor>1.000</ScaleFactor>
#     </OBS_SeapointTurbiditySensor>
#   </sensor>
#   <sensor Channel="5" >
#     <!-- A/D voltage 1, Fluorometer, Wetlab Wetstar -->
#     <FluoroWetlabWetstarSensor SensorID="21" >
#       <SerialNumber>FLRT-2089</SerialNumber>
#       <CalibrationDate>1/11/2010</CalibrationDate>
#       <ScaleFactor>6.000</ScaleFactor>
#       <Vblank>0.077</Vblank>
#     </FluoroWetlabWetstarSensor>
#   </sensor>
# </Sensors>
# datcnv_date = Mar 18 2019 11:16:32, 7.20a
# datcnv_in = C:\Documents and Settings\maribel\Escritorio\PUDEM\CTD\Pudem\Data\Cast SBE-25 Pudem 171\PU171000.hex C:\Documents and Settings\maribel\Escritorio\PUDEM\CTD\Pudem\Ficheros de calibración\104AB17.con
# datcnv_skipover = 0
# file_type = ascii
*END*
          1      0.000      0.204    14.4873     0.0000      0.000    -0.4620  -0.000100  0.000e+00
          2      0.125      0.204    14.4877     0.0000      0.000    -0.4620  -0.000192  0.000e+00
          3      0.250      0.204    14.4883     0.0000      0.000    -0.4620  -0.000031  0.000e+00
          4      0.375      0.204    14.4907     0.0000      0.000    -0.4620  -0.000031  0.000e+00
          5      0.500      0.204    14.4937     0.0077      0.000    -0.4620   0.000004  0.000e+00
          6      0.625      0.204    14.4952     0.0000      0.000    -0.4620  -0.000031  0.000e+00
          7      0.750      0.204    14.4960     0.0077      0.000    -0.4620   0.000004  0.000e+00
          8      0.875      0.204    14.4956     0.0000      0.000    -0.4620  -0.000031  0.000e+00
          9      1.000      0.204    14.4956     0.0000      0.000    -0.4620  -0.000123  0.000e+00
         10      1.125      0.108    14.4963     0.0000      0.000    -0.4620  -0.000065  0.000e+00
         11      1.250      0.204    14.4978     0.0000      0.000    -0.4620  -0.000065  0.000e+00
         12      1.375      0.204    14.4999     0.0000      0.000    -0.4620  -0.000088  0.000e+00
         13      1.500      0.204    14.5014     0.0000      0.000    -0.4620  -0.000088  0.000e+00
         14      1.625      0.204    14.5048     0.0000      0.000    -0.4620  -0.000065  0.000e+00
         15      1.750      0.204    14.5111     0.0000      0.000    -0.4620  -0.000088  0.000e+00
         16      1.875      0.204    14.5204     0.0000      0.000    -0.4620  -0.000088  0.000e+00
         17      2.000      0.204    14.5261     0.0000      0.000    -0.4620  -0.000065  0.000e+00
         18      2.125      0.204    14.5298     0.0000      0.000    -0.4620  -0.000157  0.000e+00
         19      2.250      0.204    14.5321     0.0000      0.000    -0.4620  -0.000192  0.000e+00
         20      2.375      0.204    14.5338     0.0000      0.000    -0.4620  -0.000031  0.000e+00
         21      2.500      0.204    14.5347     0.0000      0.000    -0.4620  -0.000180  0.000e+00
         22      2.625      0.204    14.5357     0.0000      0.000    -0.4620  -0.000065  0.000e+00
         23      2.750      0.204    14.5357     0.0000      0.000    -0.4620  -0.000123  0.000e+00
         24      2.875      0.204    14.5357     0.0077      0.000    -0.4620   0.000004  0.000e+00
         25      3.000      0.204    14.5364     0.0000      0.000    -0.4620  -0.000123  0.000e+00
         26      3.125      0.204    14.5370     0.0000      0.000    -0.4620  -0.000157  0.000e+00
         27      3.250      0.204    14.5498     0.0000      0.000    -0.4620  -0.000123  0.000e+00
         28      3.375      0.204    14.5728     0.0000      0.000    -0.4620  -0.000157  0.000e+00
         29      3.500      0.204    14.5965     0.0000      0.000    -0.4620  -0.000065  0.000e+00
         30      3.625      0.204    14.6063     0.0000      0.000    -0.4620  -0.000123  0.000e+00
         31      3.750      0.204    14.6128     0.0000      0.000    -0.4620  -0.000123  0.000e+00
         32      3.875      0.204    14.6194     0.0000      0.000    -0.4620  -0.000065  0.000e+00
         33      4.000      0.204    14.6234     0.0000      0.000    -0.4620  -0.000123  0.000e+00
         34      4.125      0.204    14.6256     0.0000      0.000    -0.4620  -0.000088  0.000e+00
         35      4.250      0.204    14.6275     0.0000      0.000    -0.4620  -0.000157  0.000e+00
         36      4.375      0.204    14.6284     0.0000      0.000    -0.4620  -0.000157  0.000e+00
         37      4.500      0.204    14.6316     0.0000      0.000    -0.4620  -0.000123  0.000e+00
         38      4.625      0.204    14.6416     0.0000      0.000    -0.4620  -0.000123  0.000e+00
         39      4.750      0.204    14.6527     0.0078      0.000    -0.4620   0.000004  0.000e+00
         40      4.875      0.204    14.6794     0.0000      0.000    -0.4620  -0.000123  0.000e+00
         41      5.000      0.204    14.7160     0.0000      0.000    -0.4620  -0.000215  0.000e+00
         42      5.125      0.204    14.7514     0.0000      0.000    -0.4620  -0.000157  0.000e+00
         43      5.250      0.204    14.7871     0.0000      0.000    -0.4620  -0.000157  0.000e+00
         44      5.375      0.204    14.8214     0.0000      0.000    -0.4620  -0.000157  0.000e+00
         45      5.500      0.204    14.8564     0.0000      0.000    -0.4620  -0.000065  0.000e+00
         46      5.625      0.204    14.8902     0.0000      0.000    -0.4620  -0.000123  0.000e+00
         47      5.750      0.204    14.9235     0.0000      0.000    -0.4620  -0.000088  0.000e+00
         48      5.875      0.204    14.9588     0.0000      0.000    -0.4620  -0.000157  0.000e+00
         49      6.000      0.204    14.9930     0.0000      0.000    -0.4620  -0.000123  0.000e+00
         50      6.125      0.204    15.0247     0.0000      0.000    -0.4620  -0.000123  0.000e+00
         51      6.250     -0.084    15.0520     0.0000      0.000    -0.4620  -0.000157  0.000e+00
         52      6.375      0.300    15.0730     0.0000      0.000    -0.4620  -0.000123  0.000e+00
         53      6.500      0.204    15.0843     0.0000      0.000    -0.4620  -0.000157  0.000e+00
         54      6.625      0.204    15.0929     0.0000      0.000    -0.4620  -0.000123  0.000e+00
         55      6.750      0.204    15.1043     0.0000      0.000    -0.4620  -0.000088  0.000e+00
         56      6.875      0.204    15.1284     0.0000      0.000    -0.4620  -0.000065  0.000e+00
         57      7.000      0.204    15.1597     0.0000      0.000    -0.4620  -0.000088  0.000e+00
         58      7.125      0.204    15.1958     0.0000      0.000    -0.4620  -0.000123  0.000e+00
         59      7.250      0.204    15.2314     0.0000      0.000    -0.4620  -0.000065  0.000e+00
         60      7.375      0.204    15.2581     0.0000      0.000    -0.4620  -0.000192  0.000e+00
         61      7.500      0.204    15.2600     0.0000      0.000    -0.4620  -0.000157  0.000e+00
         62      7.625      0.204    15.2581     0.0000      0.000    -0.4620  -0.000031  0.000e+00
         63      7.750      0.204    15.2597     0.0000      0.000    -0.4620  -0.000180  0.000e+00
         64      7.875      0.204    15.2633     0.0000      0.000    -0.4620  -0.000123  0.000e+00
         65      8.000      0.204    15.2642     0.0000      0.000    -0.4620  -0.000123  0.000e+00
         66      8.125      0.108    15.2665     0.0000      0.000    -0.4620  -0.000180  0.000e+00
         67      8.250      0.300    15.2674     0.0000      0.000    -0.4620  -0.000123  0.000e+00
         68      8.375      0.204    15.2619     0.0000      0.000    -0.4620  -0.000157  0.000e+00
         69      8.500      0.300    15.2302     0.0000      0.000    -0.4620  -0.000434  0.000e+00
         70      8.625      0.300    15.1999     0.0000      0.000    -0.4620  -0.000157  0.000e+00
         71      8.750      0.204    15.1821     0.0000      0.000    -0.4620  -0.000088  0.000e+00
         72      8.875      0.300    15.1647     0.0000      0.000    -0.4620  -0.000123  0.000e+00
         73      9.000      0.204    15.1509     0.0000      0.000    -0.4620  -0.000250  0.000e+00
         74      9.125      0.204    15.1366     0.0000      0.000    -0.4620  -0.000215  0.000e+00
         75      9.250      0.300    15.1145     0.0000      0.000    -0.4620  -0.000157  0.000e+00
         76      9.375      0.204    15.0773     0.0000      0.000    -0.4620  -0.000065  0.000e+00
         77      9.500      0.300    15.0473     0.0000      0.000    -0.4620  -0.000250  0.000e+00
         78      9.625      0.204    15.0296     0.0000      0.000    -0.4620  -0.000180  0.000e+00
         79      9.750      0.300    15.0140     0.0000      0.000    -0.4620  -0.000180  0.000e+00
         80      9.875      0.204    14.9996     0.0000      0.000    -0.4620  -0.000088  0.000e+00
         81     10.000      0.204    14.9855     0.0000      0.000    -0.4620  -0.000123  0.000e+00
         82     10.125      0.396    14.9731     0.0000      0.000    -0.4620  -0.000157  0.000e+00
         83     10.250      0.300    14.9537     0.0000      0.000    -0.4620  -0.000215  0.000e+00
         84     10.375      0.108    14.9375     0.0000      0.000    -0.4620  -0.000365  0.000e+00
         85     10.500      0.300    14.9243     0.0000      0.000    -0.4620  -0.000284  0.000e+00
         86     10.625      0.204    14.9103     0.0000      0.000    -0.4620  -0.000227  0.000e+00
         87     10.750      0.300    14.8955     0.0000      0.000    -0.4620  -0.000180  0.000e+00
         88     10.875      0.300    14.8809     0.0000      0.000    -0.4620  -0.000088  0.000e+00
         89     11.000      0.108    14.8662     0.0000      0.000    -0.4620  -0.000180  0.000e+00
         90     11.125      0.204    14.8511     0.0000      0.000    -0.4620  -0.000273  0.000e+00
         91     11.250      0.300    14.8368     0.0000      0.000    -0.4620  -0.000088  0.000e+00
         92     11.375      0.012    14.8220     0.0000      0.000    -0.4620  -0.000088  0.000e+00
         93     11.500      0.204    14.8048     0.0000      0.000    -0.4620  -0.000157  0.000e+00
         94     11.625      0.204    14.7866     0.0000      0.000    -0.4620  -0.000250  0.000e+00
         95     11.750      0.108    14.7689     0.0000      0.000    -0.4620  -0.000100  0.000e+00
         96     11.875      0.300    14.7520     0.0000      0.000    -0.4620  -0.000157  0.000e+00
         97     12.000      0.204    14.7336     0.0000      0.000    -0.4620  -0.000065  0.000e+00
         98     12.125      0.204    14.7148     0.0000      0.000    -0.4620  -0.000157  0.000e+00
         99     12.250      0.204    14.6944     0.0000      0.000    -0.4620  -0.000180  0.000e+00
        100     12.375      0.204    14.6764     0.0000      0.000    -0.4620  -0.000123  0.000e+00
        101     12.500      0.204    14.6576     0.0000      0.000    -0.4620  -0.000215  0.000e+00
        102     12.625      0.204    14.6388     0.0000      0.000    -0.4620  -0.000100  0.000e+00
        103     12.750      0.204    14.6230     0.0000      0.000    -0.4620  -0.000319  0.000e+00
        104     12.875      0.204    14.6080     0.0000      0.000    -0.4620  -0.000250  0.000e+00
        105     13.000      0.204    14.5929     0.0000      0.000    -0.4620  -0.000180  0.000e+00
        106     13.125      0.204    14.5796     0.0000      0.000    -0.4620  -0.000088  0.000e+00
        107     13.250      0.204    14.5683     0.0000      0.000    -0.4620  -0.000215  0.000e+00
        108     13.375      0.204    14.5565     0.0000      0.000    -0.4620  -0.000065  0.000e+00
        109     13.500      0.204    14.5441     0.0000      0.000    -0.4620  -0.000157  0.000e+00
        110     13.625      0.204    14.5304     0.0000      0.000    -0.4620  -0.000180  0.000e+00
        111     13.750      0.204    14.5193     0.0000      0.000    -0.4620  -0.000123  0.000e+00
        112     13.875      0.204    14.5072     0.0000      0.000    -0.4620  -0.000157  0.000e+00
        113     14.000      0.204    14.4937     0.0000      0.000    -0.4620  -0.000180  0.000e+00
        114     14.125      0.204    14.4811     0.0000      0.000    -0.4620  -0.000157  0.000e+00
        115     14.250      0.204    14.4679     0.0000      0.000    -0.4620  -0.000215  0.000e+00
        116     14.375      0.204    14.4567     0.0000      0.000    -0.4620  -0.000123  0.000e+00
        117     14.500      0.204    14.4461     0.0000      0.000    -0.4620  -0.000157  0.000e+00
        118     14.625      0.204    14.4351     0.0000      0.000    -0.4620  -0.000273  0.000e+00
        119     14.750      0.204    14.4236     0.0000      0.000    -0.4620  -0.000273  0.000e+00
        120     14.875      0.204    14.4095     0.0000      0.000    -0.4620  -0.000227  0.000e+00
        121     15.000      0.204    14.3981     0.0000      0.000    -0.4620  -0.000157  0.000e+00
        122     15.125      0.204    14.3866     0.0000      0.000    -0.4620  -0.000088  0.000e+00
        123     15.250      0.204    14.3770     0.0000      0.000    -0.4620  -0.000157  0.000e+00
        124     15.375      0.204    14.3662     0.0000      0.000    -0.4620  -0.000180  0.000e+00
        125     15.500      0.204    14.3563     0.0000      0.000    -0.4620  -0.000157  0.000e+00
        126     15.625      0.204    14.3463     0.0000      0.000    -0.4620  -0.000180  0.000e+00
        127     15.750      0.108    14.3377     0.0000      0.000    -0.4620  -0.000215  0.000e+00
        128     15.875      0.204    14.3291     0.0000      0.000    -0.4620  -0.000227  0.000e+00
        129     16.000      0.108    14.3195     0.0000      0.000    -0.4620  -0.000227  0.000e+00
        130     16.125      0.204    14.3104     0.0000      0.000    -0.4620  -0.000180  0.000e+00
        131     16.250      0.108    14.3006     0.0000      0.000    -0.4620  -0.000250  0.000e+00
        132     16.375      0.204    14.2899     0.0000      0.000    -0.4620  -0.000123  0.000e+00
        133     16.500      0.108    14.2835     0.0000      0.000    -0.4620  -0.000215  0.000e+00
        134     16.625      0.108    14.2795     0.0000      0.000    -0.4620  -0.000180  0.000e+00
        135     16.750      0.204    14.2769     0.0000      0.000    -0.4620  -0.000157  0.000e+00
        136     16.875      0.108    14.2741     0.0000      0.000    -0.4620  -0.000250  0.000e+00
        137     17.000      0.108    14.2715     0.0000      0.000    -0.4620  -0.000192  0.000e+00
        138     17.125      0.204    14.2694     0.0000      0.000    -0.4620  -0.000215  0.000e+00
        139     17.250      0.204    14.2615     0.0000      0.000    -0.4620  -0.000215  0.000e+00
        140     17.375      0.204    14.2493     0.0000      0.000    -0.4620  -0.000123  0.000e+00
        141     17.500      0.204    14.2386     0.0000      0.000    -0.4620  -0.000088  0.000e+00
        142     17.625      0.108    14.2296     0.0000      0.000    -0.4620  -0.000180  0.000e+00
        143     17.750      0.204    14.2157     0.0000      0.000    -0.4620  -0.000215  0.000e+00
        144     17.875      0.204    14.1978     0.0000      0.000    -0.4620  -0.000273  0.000e+00
        145     18.000      0.204    14.1775     0.0000      0.000    -0.4620  -0.000342  0.000e+00
        146     18.125      0.204    14.1693     0.0000      0.000    -0.4620  -0.000284  0.000e+00
        147     18.250      0.204    14.1533     0.0000      0.000    -0.4620  -0.000065  0.000e+00
        148     18.375      0.204    14.1480     0.0000      0.000    -0.4620  -0.000180  0.000e+00
        149     18.500      0.204    14.1449     0.0000      0.000    -0.4620  -0.000250  0.000e+00
        150     18.625      0.204    14.1346     0.0000      0.000    -0.4620  -0.000215  0.000e+00
        151     18.750      0.108    14.1248     0.0000      0.000    -0.4620  -0.000180  0.000e+00
        152     18.875      0.108    14.1189     0.0000      0.000    -0.4620  -0.000250  0.000e+00
        153     19.000      0.108    14.1079     0.0000      0.000    -0.4620  -0.000180  0.000e+00
        154     19.125      0.108    14.0950     0.0000      0.000    -0.4620  -0.000250  0.000e+00
        155     19.250      0.204    14.0869     0.0000      0.000    -0.4620  -0.000157  0.000e+00
        156     19.375      0.204    14.0822     0.0000      0.000    -0.4620  -0.000157  0.000e+00
        157     19.500      0.204    14.0755     0.0000      0.000    -0.4620  -0.000180  0.000e+00
        158     19.625      0.204    14.0648     0.0000      0.000    -0.4620  -0.000215  0.000e+00
        159     19.750      0.108    14.0515     0.0000      0.000    -0.4620  -0.000215  0.000e+00
        160     19.875      0.204    14.0337     0.0000      0.000    -0.4620  -0.000215  0.000e+00
        161     20.000      0.108    14.0222     0.0000      0.000    -0.4620  -0.000250  0.000e+00
        162     20.125      0.204    14.0133     0.0000      0.000    -0.4620  -0.000123  0.000e+00
        163     20.250      0.204    14.0061     0.0000      0.000    -0.4620  -0.000250  0.000e+00
        164     20.375      0.204    13.9969     0.0000      0.000    -0.4620  -0.000180  0.000e+00
        165     20.500      0.204    13.9867     0.0000      0.000    -0.4620  -0.000180  0.000e+00
        166     20.625      0.204    13.9822     0.0000      0.000    -0.4620  -0.000180  0.000e+00
        167     20.750      0.204    13.9766     0.0000      0.000    -0.4620  -0.000250  0.000e+00
        168     20.875      0.204    13.9661     0.0000      0.000    -0.4620  -0.000307  0.000e+00
        169     21.000      0.108    13.9534     0.0000      0.000    -0.4620  -0.000157  0.000e+00
        170     21.125      0.204    13.9446     0.0000      0.000    -0.4620  -0.000123  0.000e+00
        171     21.250      0.108    13.9354     0.0000      0.000    -0.4620  -0.000192  0.000e+00
        172     21.375      0.204    13.9347     0.0000      0.000    -0.4620  -0.000192  0.000e+00
        173     21.500      0.204    13.9352     0.0000      0.000    -0.4620  -0.000088  0.000e+00
        174     21.625      0.204    13.9354     0.0000      0.000    -0.4620  -0.000123  0.000e+00
        175     21.750      0.204    13.9340     0.0000      0.000    -0.4620  -0.000157  0.000e+00
        176     21.875      0.204    13.9288     0.0000      0.000    -0.4620  -0.000180  0.000e+00
        177     22.000      0.204    13.9188     0.0000      0.000    -0.4620  -0.000180  0.000e+00
        178     22.125      0.204    13.9078     0.0000      0.000    -0.4620  -0.000157  0.000e+00
        179     22.250      0.204    13.9044     0.0000      0.000    -0.4620  -0.000215  0.000e+00
        180     22.375      0.204    13.9021     0.0000      0.000    -0.4620  -0.000227  0.000e+00
        181     22.500      0.204    13.8973     0.0000      0.000    -0.4620  -0.000192  0.000e+00
        182     22.625      0.204    13.8918     0.0000      0.000    -0.4620  -0.000180  0.000e+00
        183     22.750      0.204    13.8888     0.0000      0.000    -0.4620  -0.000250  0.000e+00
        184     22.875      0.108    13.8881     0.0000      0.000    -0.4620  -0.000157  0.000e+00
        185     23.000      0.108    13.8850     0.0000      0.000    -0.4620  -0.000180  0.000e+00
        186     23.125      0.204    13.8810     0.0000      0.000    -0.4620  -0.000123  0.000e+00
        187     23.250      0.204    13.8757     0.0000      0.000    -0.4620  -0.000215  0.000e+00
        188     23.375      0.204    13.8684     0.0000      0.000    -0.4620  -0.000180  0.000e+00
        189     23.500      0.204    13.8648     0.0000      0.000    -0.4620  -0.000250  0.000e+00
        190     23.625      0.108    13.8633     0.0000      0.000    -0.4620  -0.000250  0.000e+00
        191     23.750      0.204    13.8607     0.0000      0.000    -0.4620  -0.000215  0.000e+00
        192     23.875      0.204    13.8559     0.0000      0.000    -0.4620  -0.000215  0.000e+00
        193     24.000      0.108    13.8482     0.0000      0.000    -0.4620  -0.000215  0.000e+00
        194     24.125      0.204    13.8364     0.0000      0.000    -0.4620  -0.000180  0.000e+00
        195     24.250      0.204    13.8261     0.0000      0.000    -0.4620  -0.000215  0.000e+00
        196     24.375      0.108    13.8191     0.0000      0.000    -0.4620  -0.000180  0.000e+00
        197     24.500      0.204    13.8139     0.0000      0.000    -0.4620  -0.000284  0.000e+00
        198     24.625      0.204    13.8085     0.0000      0.000    -0.4620  -0.000319  0.000e+00
        199     24.750      0.204    13.8038     0.0000      0.000    -0.4620  -0.000123  0.000e+00
        200     24.875      0.204    13.7877     0.0000      0.000    -0.4620  -0.000273  0.000e+00
        201     25.000      0.300    13.7838     0.0078      0.000    -0.4620   0.002853  0.000e+00
        202     25.125      0.204    13.7844    29.5115      0.000    -0.4620  35.802342  0.000e+00
        203     25.250      0.204    13.7838    17.9275      0.000    -0.4620  22.768702  0.000e+00
        204     25.375      0.204    13.7791    38.2723      0.000    -0.4620  45.186909  0.000e+00
        205     25.500      0.204    13.7746    37.8546      0.000    -0.4620  44.742554  0.000e+00
        206     25.625      0.204    13.7715    38.2938      0.000    -0.4620  45.201360  0.000e+00
        207     25.750      0.204    13.7705    38.9585      0.000    -0.4620  45.898072  0.000e+00
        208     25.875      0.300    13.7718    38.7364      0.000    -0.4620  45.666628  0.000e+00
        209     26.000      0.204    13.7724    38.7101      0.000    -0.4620  45.639632  0.000e+00
        210     26.125      0.300    13.7731    39.0720      0.000    -0.4620  46.019851  0.000e+00
        211     26.250      0.300    13.7722    38.9754      0.000    -0.4620  45.917656  0.000e+00
        212     26.375      0.300    13.7741    38.8519      0.000    -0.4620  45.790163  0.000e+00
        213     26.500      0.300    13.7748    38.9986      0.000    -0.4620  45.944810  0.000e+00
        214     26.625      0.396    13.7698    39.1416      0.000    -0.4620  46.089257  0.000e+00
        215     26.750      0.587    13.7645    39.2928      0.000    -0.4620  46.242079  0.000e+00
        216     26.875      0.683    13.7639    39.3673      0.000    -0.4620  46.319399  0.000e+00
        217     27.000      0.779    13.7639    39.3964      0.000    -0.4620  46.349909  0.000e+00
        218     27.125      0.875    13.7644    39.5300      0.000    -0.4620  46.490095  0.000e+00
        219     27.250      0.875    13.7644    39.6283      0.000    -0.4620  46.592883  0.000e+00
        220     27.375      0.971    13.7659    39.6085      0.000    -0.4620  46.573865  0.000e+00
        221     27.500      0.971    13.7656    39.0431      0.000    -0.4620  45.981919  0.000e+00
        222     27.625      0.971    13.7651    38.7651      0.000    -0.4620  45.689883  0.000e+00
        223     27.750      0.875    13.7668    39.1712      0.000    -0.4620  46.117321  0.000e+00
        224     27.875      0.971    13.7679    38.9911      0.000    -0.4620  45.929927  0.000e+00
        225     28.000      0.875    13.7671    38.9094      0.000    -0.4620  45.843309  0.000e+00
        226     28.125      0.971    13.7662    38.8607      0.000    -0.4620  45.791351  0.000e+00
        227     28.250      0.971    13.7651    38.8345      0.000    -0.4620  45.762688  0.000e+00
        228     28.375      0.971    13.7649    38.8339      0.000    -0.4620  45.761912  0.000e+00
        229     28.500      0.971    13.7645    38.9818      0.000    -0.4620  45.916474  0.000e+00
        230     28.625      1.067    13.7651    39.3362      0.000    -0.4620  46.288203  0.000e+00
        231     28.750      1.067    13.7647    39.3880      0.000    -0.4620  46.342149  0.000e+00
        232     28.875      1.067    13.7672    39.4014      0.000    -0.4620  46.358781  0.000e+00
        233     29.000      1.067    13.7705    39.4354      0.000    -0.4620  46.397931  0.000e+00
        234     29.125      1.067    13.7726    39.4497      0.000    -0.4620  46.415066  0.000e+00
        235     29.250      1.067    13.7758    39.4445      0.000    -0.4620  46.413134  0.000e+00
        236     29.375      1.067    13.7795    39.3772      0.000    -0.4620  46.346746  0.000e+00
        237     29.500      1.067    13.7827    39.3138      0.000    -0.4620  46.283768  0.000e+00
        238     29.625      1.067    13.7848    39.2350      0.000    -0.4620  46.203523  0.000e+00
        239     29.750      0.971    13.7818    39.2080      0.000    -0.4620  46.171951  0.000e+00
        240     29.875      0.971    13.7848    39.1326      0.000    -0.4620  46.096180  0.000e+00
        241     30.000      0.875    13.7945    39.0737      0.000    -0.4620  46.044822  0.000e+00
        242     30.125      0.971    13.7983    39.0459      0.000    -0.4620  46.019810  0.000e+00
        243     30.250      0.875    13.7962    39.0181      0.000    -0.4620  45.988420  0.000e+00
        244     30.375      0.971    13.7922    38.9997      0.000    -0.4620  45.964854  0.000e+00
        245     30.500      0.971    13.7876    38.9612      0.000    -0.4620  45.919538  0.000e+00
        246     30.625      0.875    13.7833    38.9174      0.000    -0.4620  45.868969  0.000e+00
        247     30.750      0.875    13.7799    38.8636      0.000    -0.4620  45.808910  0.000e+00
        248     30.875      0.875    13.7778    38.7830      0.000    -0.4620  45.722236  0.000e+00
        249     31.000      0.875    13.7765    38.7133      0.000    -0.4620  45.647626  0.000e+00
        250     31.125      0.971    13.7762    38.7028      0.000    -0.4620  45.636250  0.000e+00
        251     31.250      0.971    13.7743    38.9452      0.000    -0.4620  45.888509  0.000e+00
        252     31.375      0.971    13.7733    39.2111      0.000    -0.4620  46.166172  0.000e+00
        253     31.500      0.971    13.7707    39.2915      0.000    -0.4620  46.247495  0.000e+00
        254     31.625      0.971    13.7700    39.2072      0.000    -0.4620  46.158466  0.000e+00
        255     31.750      0.971    13.7743    39.2146      0.000    -0.4620  46.170804  0.000e+00
        256     31.875      1.067    13.7844    39.2075      0.000    -0.4620  46.174247  0.000e+00
        257     32.000      1.067    13.7939    39.1925      0.000    -0.4620  46.168875  0.000e+00
        258     32.125      0.971    13.8025    39.1481      0.000    -0.4620  46.131535  0.000e+00
        259     32.250      0.971    13.7977    39.0608      0.000    -0.4620  46.034792  0.000e+00
        260     32.375      0.971    13.7887    37.0962      0.000    -0.4620  43.957371  0.000e+00
        261     32.500      0.875    13.7877    36.8278      0.000    -0.4620  43.672403  0.000e+00
        262     32.625      0.875    13.7896    38.7217      0.000    -0.4620  45.670462  0.000e+00
        263     32.750      0.971    13.7943    38.6055      0.000    -0.4620  45.553433  0.000e+00
        264     32.875      0.875    13.7967    38.5207      0.000    -0.4620  45.466821  0.000e+00
        265     33.000      0.875    13.7980    38.4793      0.000    -0.4620  45.424703  0.000e+00
        266     33.125      0.875    13.7974    38.6136      0.000    -0.4620  45.565165  0.000e+00
        267     33.250      0.875    13.7902    38.8367      0.000    -0.4620  45.791715  0.000e+00
        268     33.375      0.971    13.7833    38.8761      0.000    -0.4620  45.825739  0.000e+00
        269     33.500      0.971    13.7788    38.9621      0.000    -0.4620  45.911116  0.000e+00
        270     33.625      0.971    13.7758    39.0718      0.000    -0.4620  46.022883  0.000e+00
        271     33.750      0.971    13.7752    39.1138      0.000    -0.4620  46.066241  0.000e+00
        272     33.875      1.067    13.7889    39.0851      0.000    -0.4620  46.050884  0.000e+00
        273     34.000      0.971    13.8044    39.0191      0.000    -0.4620  45.998281  0.000e+00
        274     34.125      0.971    13.8081    38.9752      0.000    -0.4620  45.956261  0.000e+00
        275     34.250      0.971    13.8005    38.9543      0.000    -0.4620  45.926078  0.000e+00
        276     34.375      0.971    13.8005    38.9323      0.000    -0.4620  45.903058  0.000e+00
        277     34.500      0.971    13.8130    38.8991      0.000    -0.4620  45.881595  0.000e+00
        278     34.625      0.971    13.8180    38.8803      0.000    -0.4620  45.867289  0.000e+00
        279     34.750      0.875    13.8171    38.8686      0.000    -0.4620  45.853926  0.000e+00
        280     34.875      0.875    13.8068    38.8504      0.000    -0.4620  45.823816  0.000e+00
        281     35.000      0.875    13.7984    38.7735      0.000    -0.4620  45.734109  0.000e+00
        282     35.125      0.875    13.7924    38.7085      0.000    -0.4620  45.659531  0.000e+00
        283     35.250      0.875    13.7868    38.6594      0.000    -0.4620  45.602005  0.000e+00
        284     35.375      0.875    13.7840    38.6186      0.000    -0.4620  45.556204  0.000e+00
        285     35.500      0.875    13.7818    38.5745      0.000    -0.4620  45.507493  0.000e+00
        286     35.625      0.875    13.7808    38.5250      0.000    -0.4620  45.454573  0.000e+00
        287     35.750      0.875    13.7799    38.5196      0.000    -0.4620  45.447858  0.000e+00
        288     35.875      0.875    13.7791    38.6679      0.000    -0.4620  45.602740  0.000e+00
        289     36.000      0.971    13.7780    38.8709      0.000    -0.4620  45.814629  0.000e+00
        290     36.125      0.971    13.7769    38.9622      0.000    -0.4620  45.909195  0.000e+00
        291     36.250      0.971    13.7758    38.9418      0.000    -0.4620  45.886587  0.000e+00
        292     36.375      0.971    13.7758    38.9389      0.000    -0.4620  45.883522  0.000e+00
        293     36.500      0.971    13.7801    38.9177      0.000    -0.4620  45.865905  0.000e+00
        294     36.625      0.971    13.7838    38.8497      0.000    -0.4620  45.798577  0.000e+00
        295     36.750      0.971    13.7844    38.7811      0.000    -0.4620  45.727214  0.000e+00
        296     36.875      0.971    13.7829    38.7394      0.000    -0.4620  45.681884  0.000e+00
        297     37.000      0.971    13.7818    38.6836      0.000    -0.4620  45.622143  0.000e+00
        298     37.125      0.875    13.7812    38.5476      0.000    -0.4620  45.478627  0.000e+00
        299     37.250      0.875    13.7823    38.4435      0.000    -0.4620  45.370529  0.000e+00
        300     37.375      0.875    13.7834    38.3837      0.000    -0.4620  45.308865  0.000e+00
        301     37.500      0.875    13.7840    38.3598      0.000    -0.4620  45.284323  0.000e+00
        302     37.625      0.875    13.7837    38.3515      0.000    -0.4620  45.275264  0.000e+00
        303     37.750      0.875    13.7829    38.3681      0.000    -0.4620  45.291880  0.000e+00
        304     37.875      0.875    13.7825    38.5285      0.000    -0.4620  45.460026  0.000e+00
        305     38.000      0.875    13.7812    38.6220      0.000    -0.4620  45.556816  0.000e+00
        306     38.125      0.875    13.7784    38.6420      0.000    -0.4620  45.574865  0.000e+00
        307     38.250      0.971    13.7761    38.6897      0.000    -0.4620  45.622511  0.000e+00
        308     38.375      0.875    13.7756    38.7472      0.000    -0.4620  45.682252  0.000e+00
        309     38.500      0.971    13.7760    38.7758      0.000    -0.4620  45.712729  0.000e+00
        310     38.625      0.971    13.7913    38.7624      0.000    -0.4620  45.715012  0.000e+00
        311     38.750      0.971    13.8087    38.7040      0.000    -0.4620  45.672132  0.000e+00
        312     38.875      0.971    13.8070    38.6610      0.000    -0.4620  45.625156  0.000e+00
        313     39.000      0.971    13.7984    38.6208      0.000    -0.4620  45.573885  0.000e+00
        314     39.125      0.971    13.7937    38.5428      0.000    -0.4620  45.486971  0.000e+00
        315     39.250      0.875    13.7915    38.5137      0.000    -0.4620  45.453920  0.000e+00
        316     39.375      0.875    13.7895    38.4634      0.000    -0.4620  45.398955  0.000e+00
        317     39.500      0.971    13.7883    38.4278      0.000    -0.4620  45.360323  0.000e+00
        318     39.625      0.875    13.7862    38.4018      0.000    -0.4620  45.330810  0.000e+00
        319     39.750      0.875    13.7867    38.4198      0.000    -0.4620  45.350200  0.000e+00
        320     39.875      0.875    13.7859    38.5956      0.000    -0.4620  45.534085  0.000e+00
        321     40.000      0.875    13.7844    38.7089      0.000    -0.4620  45.651417  0.000e+00
        322     40.125      0.875    13.7791    38.7618      0.000    -0.4620  45.701303  0.000e+00
        323     40.250      0.875    13.7765    38.7623      0.000    -0.4620  45.699019  0.000e+00
        324     40.375      0.875    13.7756    38.7519      0.000    -0.4620  45.687188  0.000e+00
        325     40.500      0.875    13.7750    38.6923      0.000    -0.4620  45.624060  0.000e+00
        326     40.625      0.875    13.7754    38.0813      0.000    -0.4620  44.982337  0.000e+00
        327     40.750      0.875    13.7752    38.0244      0.000    -0.4620  44.922296  0.000e+00
        328     40.875      0.971    13.7754    38.5806      0.000    -0.4620  45.507168  0.000e+00
        329     41.000      0.875    13.7758    38.5346      0.000    -0.4620  45.459253  0.000e+00
        330     41.125      0.875    13.7754    38.4970      0.000    -0.4620  45.419418  0.000e+00
        331     41.250      0.875    13.7769    38.4963      0.000    -0.4620  45.420190  0.000e+00
        332     41.375      0.875    13.7758    38.5237      0.000    -0.4620  45.447859  0.000e+00
        333     41.500      0.875    13.7760    38.5709      0.000    -0.4620  45.497599  0.000e+00
        334     41.625      0.875    13.7750    38.6066      0.000    -0.4620  45.534127  0.000e+00
        335     41.750      0.875    13.7748    38.6105      0.000    -0.4620  45.537915  0.000e+00
        336     41.875      0.875    13.7750    38.5646      0.000    -0.4620  45.490027  0.000e+00
        337     42.000      0.875    13.7750    38.4902      0.000    -0.4620  45.411810  0.000e+00
        338     42.125      0.971    13.7748    38.4590      0.000    -0.4620  45.378866  0.000e+00
        339     42.250      0.875    13.7745    38.3647      0.000    -0.4620  45.279409  0.000e+00
        340     42.375      0.875    13.7744    38.1297      0.000    -0.4620  45.032327  0.000e+00
        341     42.500      0.875    13.7747    38.3649      0.000    -0.4620  45.279775  0.000e+00
        342     42.625      0.875    13.7743    38.3530      0.000    -0.4620  45.266939  0.000e+00
        343     42.750      0.875    13.7743    38.3563      0.000    -0.4620  45.270351  0.000e+00
        344     42.875      0.875    13.7737    38.3957      0.000    -0.4620  45.311142  0.000e+00
        345     43.000      0.875    13.7735    38.4776      0.000    -0.4620  45.397045  0.000e+00
        346     43.125      0.875    13.7737    38.5359      0.000    -0.4620  45.458481  0.000e+00
        347     43.250      0.875    13.7741    38.5493      0.000    -0.4620  45.472929  0.000e+00
        348     43.375      0.875    13.7741    38.5506      0.000    -0.4620  45.474232  0.000e+00
        349     43.500      0.875    13.7743    38.5354      0.000    -0.4620  45.458480  0.000e+00
        350     43.625      0.875    13.7746    38.5018      0.000    -0.4620  45.423567  0.000e+00
        351     43.750      0.875    13.7748    38.4760      0.000    -0.4620  45.396679  0.000e+00
        352     43.875      0.875    13.7743    38.4502      0.000    -0.4620  45.369026  0.000e+00
        353     44.000      0.875    13.7752    38.4438      0.000    -0.4620  45.363333  0.000e+00
        354     44.125      0.875    13.7748    38.4457      0.000    -0.4620  45.364838  0.000e+00
        355     44.250      0.875    13.7752    38.4511      0.000    -0.4620  45.370896  0.000e+00
        356     44.375      0.875    13.7756    38.4590      0.000    -0.4620  45.379639  0.000e+00
        357     44.500      0.875    13.7748    38.4471      0.000    -0.4620  45.366383  0.000e+00
        358     44.625      0.875    13.7747    38.4185      0.000    -0.4620  45.336136  0.000e+00
        359     44.750      0.875    13.7752    38.3898      0.000    -0.4620  45.306590  0.000e+00
        360     44.875      0.875    13.7747    38.3552      0.000    -0.4620  45.269579  0.000e+00
        361     45.000      0.875    13.7747    38.3376      0.000    -0.4620  45.251099  0.000e+00
        362     45.125      0.875    13.7744    38.3206      0.000    -0.4620  45.233069  0.000e+00
        363     45.250      0.875    13.7747    38.3118      0.000    -0.4620  45.223974  0.000e+00
        364     45.375      0.875    13.7748    38.3087      0.000    -0.4620  45.220929  0.000e+00
        365     45.500      0.875    13.7745    38.3460      0.000    -0.4620  45.259790  0.000e+00
        366     45.625      0.875    13.7745    38.4429      0.000    -0.4620  45.361585  0.000e+00
        367     45.750      0.875    13.7737    38.4955      0.000    -0.4620  45.416001  0.000e+00
        368     45.875      0.875    13.7739    38.5339      0.000    -0.4620  45.456608  0.000e+00
        369     46.000      0.875    13.7731    38.5340      0.000    -0.4620  45.455835  0.000e+00
        370     46.125      0.875    13.7735    38.5394      0.000    -0.4620  45.461899  0.000e+00
        371     46.250      0.971    13.7737    38.5431      0.000    -0.4620  45.466092  0.000e+00
        372     46.375      0.875    13.7769    38.5342      0.000    -0.4620  45.460027  0.000e+00
        373     46.500      0.875    13.7799    38.4943      0.000    -0.4620  45.421288  0.000e+00
        374     46.625      0.875    13.7803    38.4788      0.000    -0.4620  45.405383  0.000e+00
        375     46.750      0.875    13.7797    38.4627      0.000    -0.4620  45.387934  0.000e+00
        376     46.875      0.875    13.7782    38.4246      0.000    -0.4620  45.346298  0.000e+00
        377     47.000      0.875    13.7775    38.3718      0.000    -0.4620  45.289972  0.000e+00
        378     47.125      0.875    13.7747    38.3384      0.000    -0.4620  45.251992  0.000e+00
        379     47.250      0.875    13.7750    38.3143      0.000    -0.4620  45.226978  0.000e+00
        380     47.375      0.875    13.7739    38.3144      0.000    -0.4620  45.225882  0.000e+00
        381     47.500      0.875    13.7747    38.3958      0.000    -0.4620  45.312239  0.000e+00
        382     47.625      0.971    13.7741    38.4234      0.000    -0.4620  45.340649  0.000e+00
        383     47.750      0.875    13.7748    38.4666      0.000    -0.4620  45.386837  0.000e+00
        384     47.875      0.875    13.7743    38.4964      0.000    -0.4620  45.417506  0.000e+00
        385     48.000      0.971    13.7754    38.5006      0.000    -0.4620  45.423202  0.000e+00
        386     48.125      0.971    13.7810    38.4985      0.000    -0.4620  45.426984  0.000e+00
        387     48.250      0.971    13.7896    38.4549      0.000    -0.4620  45.390211  0.000e+00
        388     48.375      0.875    13.7970    38.4309      0.000    -0.4620  45.372804  0.000e+00
        389     48.500      0.971    13.8024    38.4065      0.000    -0.4620  45.352881  0.000e+00
        390     48.625      0.875    13.7966    38.3482      0.000    -0.4620  45.285459  0.000e+00
        391     48.750      0.875    13.7968    38.2341      0.000    -0.4620  45.165564  0.000e+00
        392     48.875      0.779    13.7887    38.2383      0.000    -0.4620  45.161426  0.000e+00
        393     49.000      0.779    13.7833    38.0974      0.000    -0.4620  45.007449  0.000e+00
        394     49.125      0.779    13.7799    38.2699      0.000    -0.4620  45.185410  0.000e+00
        395     49.250      0.779    13.7782    38.2964      0.000    -0.4620  45.211469  0.000e+00
        396     49.375      0.779    13.7778    38.3280      0.000    -0.4620  45.244316  0.000e+00
        397     49.500      0.875    13.7767    38.3592      0.000    -0.4620  45.275997  0.000e+00
        398     49.625      0.875    13.7765    38.3465      0.000    -0.4620  45.262430  0.000e+00
        399     49.750      0.875    13.7754    38.4462      0.000    -0.4620  45.365976  0.000e+00
        400     49.875      0.971    13.7767    38.5007      0.000    -0.4620  45.424707  0.000e+00
        401     50.000      0.875    13.7793    38.5491      0.000    -0.4620  45.478220  0.000e+00
        402     50.125      0.875    13.7867    38.5581      0.000    -0.4620  45.495440  0.000e+00
        403     50.250      0.875    13.7963    38.5138      0.000    -0.4620  45.459250  0.000e+00
        404     50.375      0.875    13.7997    38.4650      0.000    -0.4620  45.411441  0.000e+00
        405     50.500      0.875    13.7883    38.4004      0.000    -0.4620  45.331541  0.000e+00
        406     50.625      0.875    13.7831    38.3507      0.000    -0.4620  45.273762  0.000e+00
        407     50.750      0.875    13.7808    38.3447      0.000    -0.4620  45.265069  0.000e+00
